#Potential (V)	Current (A)	Frequency (Hz)
0.49033	-6.85E-06	0.00000
0.48529	-8.34E-06	1.52500
0.48032	-9.69E-06	0.00000
0.47531	-1.03E-05	0.00000
0.47031	-1.11E-05	0.00000
0.46533	-1.14E-05	1.52500
0.46033	-1.21E-05	0.00000
0.45529	-1.22E-05	0.00000
0.45032	-1.27E-05	0.00000
0.44531	-1.28E-05	0.00000
0.44031	-1.33E-05	0.00000
0.43533	-1.34E-05	0.00000
0.4303	-1.39E-05	0.00000
0.42529	-1.39E-05	0.00000
0.42032	-1.44E-05	0.00000
0.41531	-1.44E-05	0.00000
0.41031	-1.48E-05	0.00000
0.4053	-1.49E-05	0.00000
0.4003	-1.53E-05	-1.52500
0.39532	-1.53E-05	-1.52500
0.39032	-1.58E-05	0.00000
0.38531	-1.58E-05	0.00000
0.38031	-1.63E-05	0.00000
0.37531	-1.63E-05	0.00000
0.3703	-1.68E-05	0.00000
0.36533	-1.68E-05	0.00000
0.36032	-1.73E-05	0.00000
0.35532	-1.74E-05	0.00000
0.35031	-1.79E-05	-1.52500
0.34531	-1.79E-05	0.00000
0.34033	-1.85E-05	-1.52500
0.33533	-1.86E-05	0.00000
0.33032	-1.92E-05	0.00000
0.32532	-1.93E-05	0.00000
0.32031	-2.00E-05	-1.52500
0.31531	-2.02E-05	-1.52500
0.31033	-2.09E-05	-1.52500
0.30533	-2.11E-05	0.00000
0.30032	-2.19E-05	-1.52500
0.29532	-2.22E-05	-1.52500
0.29031	-2.31E-05	-1.52500
0.28531	-2.35E-05	-1.52500
0.28033	-2.45E-05	-1.52500
0.27533	-2.49E-05	-1.52500
0.27032	-2.60E-05	-3.05000
0.26532	-2.65E-05	-3.05000
0.26031	-2.77E-05	-1.52500
0.25531	-2.82E-05	-1.52500
0.25034	-2.95E-05	-3.05000
0.24533	-3.01E-05	-3.05000
0.24033	-3.15E-05	-3.05000
0.23532	-3.22E-05	-3.05000
0.23035	-3.36E-05	-3.05000
0.22534	-3.43E-05	-3.05000
0.22034	-3.58E-05	-3.05000
0.21536	-3.66E-05	-3.05000
0.21033	-3.81E-05	-3.05000
0.20532	-3.89E-05	-3.05000
0.20035	-4.05E-05	-3.05000
0.19534	-4.14E-05	-3.05000
0.19034	-4.30E-05	-3.05000
0.18536	-4.39E-05	-3.05000
0.18036	-4.56E-05	-4.58000
0.17532	-4.67E-05	-4.58000
0.17035	-4.84E-05	-4.58000
0.16534	-4.96E-05	-4.58000
0.16034	-5.15E-05	-4.58000
0.15533	-5.27E-05	-4.58000
0.15033	-5.47E-05	-4.58000
0.14536	-5.61E-05	-6.10500
0.14035	-5.83E-05	-6.10500
0.13535	-5.98E-05	-6.10500
0.13034	-6.21E-05	-6.10500
0.12534	-6.37E-05	-6.10500
0.12033	-6.60E-05	-6.10500
0.11536	-6.77E-05	-7.63000
0.11035	-7.01E-05	-7.63000
0.10535	-7.16E-05	-7.63000
0.10034	-7.39E-05	-7.63000
0.09534	-7.53E-05	-7.63000
0.09036	-7.73E-05	-7.63000
0.08536	-7.85E-05	-7.63000
0.08035	-8.04E-05	-9.15500
0.07535	-8.14E-05	-10.68000
0.07034	-8.32E-05	-10.68000
0.06534	-8.41E-05	-10.68000
0.06036	-8.58E-05	-10.68000
0.05536	-8.66E-05	-10.68000
0.05035	-8.82E-05	-10.68000
0.04534	-8.88E-05	-10.68000
0.04034	-9.03E-05	-10.68000
0.03535	-9.07E-05	-12.21000
0.03035	-9.19E-05	-12.21000
0.02535	-9.22E-05	-12.21000
0.02036	-9.32E-05	-12.21000
0.01536	-9.32E-05	-12.21000
0.01036	-9.40E-05	-13.73500
0.00536	-9.38E-05	-15.26000
3.69E-04	-9.44E-05	-15.26000
-0.00463	-9.41E-05	-15.26000
-0.00963	-9.47E-05	-15.26000
-0.01462	-9.43E-05	-16.78500
-0.01962	-9.49E-05	-16.78500
-0.02462	-9.47E-05	-16.78500
-0.02961	-9.55E-05	-16.78500
-0.03461	-9.55E-05	-16.78500
-0.0396	-9.66E-05	-18.31000
-0.0446	-9.70E-05	-18.31000
-0.04959	-9.86E-05	-18.31000
-0.05463	-9.95E-05	-18.31000
-0.05963	-1.02E-04	-18.31000
-0.06464	-1.03E-04	-19.83500
-0.06964	-1.06E-04	-19.83500
-0.07462	-1.08E-04	-21.36500
-0.07962	-1.12E-04	-21.36500
-0.08463	-1.15E-04	-21.36500
-0.08963	-1.19E-04	-21.36500
-0.0946	-1.23E-04	-22.89000
-0.09961	-1.28E-04	-22.89000
-0.10461	-1.33E-04	-22.89000
-0.10962	-1.40E-04	-22.89000
-0.11462	-1.46E-04	-24.41500
-0.11963	-1.53E-04	-24.41500
-0.12463	-1.60E-04	-25.94000
-0.12961	-1.68E-04	-25.94000
-0.13461	-1.75E-04	-25.94000
-0.13962	-1.83E-04	-27.46500
-0.14462	-1.89E-04	-28.99000
-0.1496	-1.96E-04	-28.99000
-0.1546	-2.02E-04	-30.52000
-0.15961	-2.08E-04	-30.52000
-0.16461	-2.12E-04	-30.52000
-0.16962	-2.16E-04	-30.52000
-0.17459	-2.17E-04	-32.04500
-0.1796	-2.19E-04	-33.57000
-0.1846	-2.18E-04	-35.09500
-0.18961	-2.17E-04	-35.09500
-0.19461	-2.13E-04	-36.62000
-0.19962	-2.09E-04	-36.62000
-0.20459	-2.04E-04	-38.15000
-0.20959	-1.99E-04	-38.15000
-0.2146	-1.93E-04	-38.15000
-0.2196	-1.88E-04	-38.15000
-0.22461	-1.82E-04	-41.20000
-0.22958	-1.77E-04	-41.20000
-0.23459	-1.72E-04	-41.20000
-0.23959	-1.68E-04	-41.20000
-0.2446	-1.64E-04	-42.72500
-0.2496	-1.60E-04	-42.72500
-0.25458	-1.56E-04	-44.25000
-0.25958	-1.53E-04	-44.25000
-0.26459	-1.50E-04	-45.77500
-0.26959	-1.47E-04	-45.77500
-0.27457	-1.44E-04	-45.77500
-0.2796	-1.42E-04	-47.30500
-0.28458	-1.39E-04	-48.83000
-0.28958	-1.37E-04	-48.83000
-0.29459	-1.35E-04	-48.83000
-0.29956	-1.33E-04	-48.83000
-0.30457	-1.31E-04	-50.35500
-0.30957	-1.30E-04	-50.35500
-0.31458	-1.28E-04	-51.88000
-0.31958	-1.26E-04	-51.88000
-0.32459	-1.25E-04	-51.88000
-0.32956	-1.23E-04	-53.40500
-0.33459	-1.22E-04	-53.40500
-0.33957	-1.20E-04	-53.40500
-0.34457	-1.19E-04	-54.93000
-0.34958	-1.18E-04	-54.93000
-0.35458	-1.17E-04	-56.46000
-0.35956	-1.16E-04	-56.46000
-0.36456	-1.14E-04	-56.46000
-0.36957	-1.13E-04	-56.46000
-0.37457	-1.12E-04	-57.98500
-0.37955	-1.11E-04	-57.98500
-0.38455	-1.10E-04	-57.98500
-0.38956	-1.10E-04	-57.98500
-0.39456	-1.09E-04	-59.51000
-0.39957	-1.08E-04	-59.51000
-0.40457	-1.07E-04	-59.51000
-0.40955	-1.06E-04	-59.51000
-0.41455	-1.05E-04	-61.03500
-0.41956	-1.05E-04	-62.56000
-0.42456	-1.04E-04	-61.03500
-0.42957	-1.03E-04	-62.56000
-0.43457	-1.02E-04	-62.56000
-0.43954	-1.02E-04	-64.08500
-0.44455	-1.01E-04	-64.08500
-0.44955	-1.00E-04	-64.08500
-0.45456	-9.97E-05	-64.08500
-0.45956	-9.92E-05	-65.61500
-0.46454	-9.85E-05	-65.61500
-0.46954	-9.80E-05	-65.61500
-0.47455	-9.74E-05	-65.61500
-0.47952	-9.69E-05	-65.61500
-0.48453	-9.63E-05	-65.61500
-0.48953	-9.59E-05	-67.14000
-0.49454	-9.53E-05	-67.14000
-0.49927	-9.49E-05	-68.66500
-0.49579	-9.11E-05	-68.66500
-0.49078	-9.00E-05	-68.66500
-0.48578	-8.90E-05	-68.66500
-0.48077	-8.83E-05	-68.66500
-0.4758	-8.74E-05	-68.66500
-0.47076	-8.68E-05	-70.19000
-0.46579	-8.61E-05	-70.19000
-0.46078	-8.56E-05	-70.19000
-0.45578	-8.49E-05	-71.71500
-0.45078	-8.44E-05	-73.24500
-0.44577	-8.38E-05	-73.24500
-0.44077	-8.33E-05	-73.24500
-0.43576	-8.27E-05	-73.24500
-0.43076	-8.23E-05	-73.24500
-0.42575	-8.18E-05	-73.24500
-0.42078	-8.14E-05	-73.24500
-0.41574	-8.08E-05	-73.24500
-0.41077	-8.04E-05	-74.77000
-0.40576	-7.99E-05	-74.77000
-0.40076	-7.96E-05	-76.29500
-0.39575	-7.90E-05	-76.29500
-0.39075	-7.87E-05	-76.29500
-0.38574	-7.82E-05	-76.29500
-0.38074	-7.79E-05	-77.82000
-0.37573	-7.73E-05	-76.29500
-0.37076	-7.71E-05	-76.29500
-0.36575	-7.65E-05	-77.82000
-0.36075	-7.63E-05	-77.82000
-0.35574	-7.57E-05	-77.82000
-0.35074	-7.55E-05	-77.82000
-0.34573	-7.50E-05	-79.34500
-0.34076	-7.48E-05	-79.34500
-0.33575	-7.42E-05	-79.34500
-0.33075	-7.40E-05	-79.34500
-0.32574	-7.35E-05	-79.34500
-0.32074	-7.33E-05	-80.87000
-0.31573	-7.28E-05	-80.87000
-0.31073	-7.26E-05	-82.40000
-0.30573	-7.21E-05	-82.40000
-0.30075	-7.19E-05	-82.40000
-0.29575	-7.13E-05	-82.40000
-0.29074	-7.12E-05	-83.92500
-0.28574	-7.06E-05	-83.92500
-0.28073	-7.04E-05	-82.40000
-0.27573	-6.98E-05	-82.40000
-0.27072	-6.96E-05	-85.45000
-0.26572	-6.89E-05	-85.45000
-0.26071	-6.87E-05	-85.45000
-0.25571	-6.80E-05	-85.45000
-0.2507	-6.77E-05	-85.45000
-0.24573	-6.69E-05	-86.97500
-0.24072	-6.65E-05	-86.97500
-0.23572	-6.56E-05	-86.97500
-0.23071	-6.51E-05	-86.97500
-0.22574	-6.40E-05	-86.97500
-0.22073	-6.34E-05	-88.50000
-0.21573	-6.21E-05	-88.50000
-0.21072	-6.13E-05	-86.97500
-0.20572	-5.96E-05	-86.97500
-0.20071	-5.86E-05	-88.50000
-0.19571	-5.65E-05	-88.50000
-0.1907	-5.51E-05	-88.50000
-0.18573	-5.26E-05	-88.50000
-0.18073	-5.07E-05	-90.02500
-0.17572	-4.75E-05	-90.02500
-0.17072	-4.50E-05	-90.02500
-0.16571	-4.12E-05	-90.02500
-0.16071	-3.82E-05	-91.55500
-0.15573	-3.36E-05	-91.55500
-0.15073	-2.98E-05	-91.55500
-0.14572	-2.45E-05	-91.55500
-0.14072	-2.00E-05	-91.55500
-0.13571	-1.39E-05	-91.55500
-0.13071	-8.80E-06	-91.55500
-0.1257	-1.98E-06	-91.55500
-0.12073	3.84E-06	-93.08000
-0.11572	1.14E-05	-93.08000
-0.11072	1.80E-05	-93.08000
-0.10571	2.63E-05	-91.55500
-0.10071	3.35E-05	-91.55500
-0.0957	4.26E-05	-93.08000
-0.09073	5.07E-05	-93.08000
-0.08572	6.06E-05	-93.08000
-0.08072	6.95E-05	-91.55500
-0.07571	8.01E-05	-91.55500
-0.07071	8.97E-05	-91.55500
-0.0657	1.01E-04	-91.55500
-0.06073	1.11E-04	-91.55500
-0.05569	1.24E-04	-91.55500
-0.05072	1.35E-04	-88.50000
-0.04568	1.47E-04	-88.50000
-0.04069	1.59E-04	-88.50000
-0.03569	1.73E-04	-88.50000
-0.03069	1.85E-04	-86.97500
-0.0257	1.99E-04	-86.97500
-0.0207	2.12E-04	-86.97500
-0.0157	2.27E-04	-86.97500
-0.0107	2.41E-04	-83.92500
-0.0057	2.56E-04	-83.92500
-7.05E-04	2.71E-04	-80.87000
0.00429	2.87E-04	-80.87000
0.00929	3.01E-04	-79.34500
0.01429	3.18E-04	-79.34500
0.01929	3.33E-04	-76.29500
0.02429	3.50E-04	-76.29500
0.02928	3.65E-04	-74.77000
0.03428	3.82E-04	-73.24500
0.03928	3.98E-04	-70.19000
0.04427	4.15E-04	-70.19000
0.04927	4.31E-04	-68.66500
0.05429	4.48E-04	-65.61500
0.0593	4.64E-04	-64.08500
0.0643	4.81E-04	-62.56000
0.06931	4.97E-04	-61.03500
0.07428	5.14E-04	-57.98500
0.07928	5.29E-04	-56.46000
0.08429	5.44E-04	-53.40500
0.08929	5.57E-04	-51.88000
0.0943	5.71E-04	-48.83000
0.0993	5.80E-04	-47.30500
0.10431	5.88E-04	-45.77500
0.10931	5.90E-04	-44.25000
0.11432	5.90E-04	-38.15000
0.11929	5.83E-04	-38.15000
0.12433	5.73E-04	-35.09500
0.1293	5.55E-04	-33.57000
0.13431	5.31E-04	-30.52000
0.13931	4.92E-04	-30.52000
0.14432	4.41E-04	-25.94000
0.14932	3.77E-04	-25.94000
0.15433	3.15E-04	-22.89000
0.1593	2.61E-04	-22.89000
0.16431	2.20E-04	-18.31000
0.16931	1.86E-04	-18.31000
0.17432	1.62E-04	-18.31000
0.17932	1.43E-04	-18.31000
0.18433	1.29E-04	-16.78500
0.1893	1.17E-04	-16.78500
0.19431	1.09E-04	-15.26000
0.19931	1.01E-04	-15.26000
0.20432	9.64E-05	-15.26000
0.20932	9.10E-05	-15.26000
0.21432	8.79E-05	-12.21000
0.2193	8.39E-05	-12.21000
0.2243	8.19E-05	-12.21000
0.22931	7.88E-05	-12.21000
0.23431	7.75E-05	-12.21000
0.23932	7.50E-05	-12.21000
0.24432	7.42E-05	-10.68000
0.24933	7.21E-05	-10.68000
0.2543	7.16E-05	-10.68000
0.25931	6.96E-05	-10.68000
0.26431	6.93E-05	-10.68000
0.26932	6.75E-05	-10.68000
0.27429	6.73E-05	-9.15500
0.2793	6.54E-05	-9.15500
0.2843	6.52E-05	-9.15500
0.28931	6.33E-05	-7.63000
0.29431	6.30E-05	-7.63000
0.29929	6.11E-05	-7.63000
0.30432	6.07E-05	-7.63000
0.30933	5.87E-05	-7.63000
0.3143	5.83E-05	-6.10500
0.31931	5.64E-05	-7.63000
0.32431	5.60E-05	-6.10500
0.32932	5.40E-05	-6.10500
0.33432	5.37E-05	-6.10500
0.33929	5.19E-05	-6.10500
0.3443	5.17E-05	-6.10500
0.3493	4.99E-05	-6.10500
0.35431	4.98E-05	-4.58000
0.35931	4.81E-05	-4.58000
0.36432	4.81E-05	-4.58000
0.36929	4.65E-05	-4.58000
0.37433	4.67E-05	-4.58000
0.3793	4.53E-05	-4.58000
0.38431	4.52E-05	-15.26000
0.38931	4.40E-05	-15.26000
0.39432	4.43E-05	-4.58000
0.39929	4.32E-05	-6.10500
0.40433	4.37E-05	-4.58000
0.4093	4.27E-05	-4.58000
0.41431	4.33E-05	-4.58000
0.41931	4.24E-05	-4.58000
0.42432	4.31E-05	-3.05000
0.42932	4.23E-05	-3.05000
0.43433	4.31E-05	-3.05000
0.4393	4.24E-05	-3.05000
0.44431	4.33E-05	-3.05000
0.44931	4.27E-05	-3.05000
0.45432	4.37E-05	-3.05000
0.45932	4.31E-05	-3.05000
0.46432	4.42E-05	-1.52500
0.4693	4.37E-05	-1.52500
0.47433	4.49E-05	-1.52500
0.47931	4.44E-05	-1.52500
0.48431	4.57E-05	-3.05000
0.48932	4.53E-05	-3.05000
0.49432	4.66E-05	0.00000
0.49271	1.73E-05	0.00000
0.4877	8.89E-06	0.00000
0.48273	1.92E-06	0.00000
0.47772	-1.54E-06	-1.52500
0.47272	-5.39E-06	-1.52500
0.46771	-6.83E-06	0.00000
0.46271	-9.31E-06	0.00000
0.4577	-9.82E-06	0.00000
0.4527	-1.17E-05	0.00000
0.44769	-1.17E-05	0.00000
0.44272	-1.33E-05	0.00000
0.43771	-1.31E-05	0.00000
0.43271	-1.45E-05	0.00000
0.4277	-1.42E-05	0.00000
0.4227	-1.55E-05	0.00000
0.41769	-1.52E-05	0.00000
0.41269	-1.65E-05	0.00000
0.40768	-1.61E-05	0.00000
0.40268	-1.74E-05	0.00000
0.39771	-1.71E-05	0.00000
0.39267	-1.83E-05	0.00000
0.3877	-1.80E-05	0.00000
0.38269	-1.92E-05	0.00000
0.37769	-1.89E-05	0.00000
0.37271	-2.01E-05	-1.52500
0.36771	-1.98E-05	0.00000
0.3627	-2.11E-05	0.00000
0.3577	-2.07E-05	-1.52500
0.35269	-2.20E-05	-1.52500
0.34769	-2.16E-05	0.00000
0.34271	-2.29E-05	-1.52500
0.33771	-2.25E-05	-1.52500
0.3327	-2.38E-05	-1.52500
0.3277	-2.34E-05	-1.52500
0.32269	-2.46E-05	-1.52500
0.31769	-2.43E-05	-1.52500
0.31268	-2.55E-05	0.00000
0.30768	-2.52E-05	-1.52500
0.3027	-2.64E-05	-3.05000
0.2977	-2.61E-05	-3.05000
0.29269	-2.74E-05	-3.05000
0.28769	-2.70E-05	-3.05000
0.28268	-2.83E-05	-3.05000
0.27771	-2.80E-05	-3.05000
0.27271	-2.93E-05	-3.05000
0.2677	-2.90E-05	-3.05000
0.2627	-3.03E-05	-3.05000
0.25769	-3.01E-05	-3.05000
0.25269	-3.14E-05	-4.58000
0.24771	-3.12E-05	-3.05000
0.24271	-3.26E-05	-3.05000
0.2377	-3.25E-05	-3.05000
0.23273	-3.39E-05	-3.05000
0.22769	-3.38E-05	-3.05000
0.22269	-3.54E-05	-4.58000
0.21771	-3.53E-05	-4.58000
0.21271	-3.69E-05	-4.58000
0.2077	-3.70E-05	-4.58000
0.2027	-3.87E-05	-4.58000
0.19769	-3.88E-05	-4.58000
0.19272	-4.06E-05	-6.10500
0.18771	-4.08E-05	-6.10500
0.18271	-4.27E-05	-4.58000
0.1777	-4.31E-05	-4.58000
0.1727	-4.51E-05	-4.58000
0.16769	-4.56E-05	-4.58000
0.16272	-4.78E-05	-4.58000
0.15768	-4.85E-05	-4.58000
0.15271	-5.09E-05	-6.10500
0.14771	-5.17E-05	-7.63000
0.1427	-5.43E-05	-7.63000
0.1377	-5.52E-05	-7.63000
0.13269	-5.79E-05	-7.63000
0.12769	-5.90E-05	-7.63000
0.12274	-6.18E-05	-7.63000
0.11771	-6.29E-05	-7.63000
0.1127	-6.57E-05	-7.63000
0.10773	-6.68E-05	-7.63000
0.10269	-6.95E-05	-7.63000
0.09772	-7.06E-05	-7.63000
0.09271	-7.32E-05	-7.63000
0.08771	-7.42E-05	-9.15500
0.0827	-7.67E-05	-9.15500
0.07773	-7.76E-05	-9.15500
0.07269	-8.02E-05	-10.68000
0.06772	-8.10E-05	-10.68000
0.06271	-8.35E-05	-10.68000
0.05771	-8.43E-05	-10.68000
0.05273	-8.66E-05	-12.21000
0.0477	-8.73E-05	-12.21000
0.0427	-8.95E-05	-12.21000
0.03771	-8.99E-05	-12.21000
0.03271	-9.19E-05	-12.21000
0.02771	-9.21E-05	-13.73500
0.02271	-9.38E-05	-13.73500
0.01772	-9.37E-05	-13.73500
0.01272	-9.51E-05	-15.26000
0.00772	-9.48E-05	-15.26000
0.00273	-9.60E-05	-15.26000
-0.00227	-9.56E-05	-15.26000
-0.00727	-9.67E-05	-16.78500
-0.01226	-9.62E-05	-16.78500
-0.01726	-9.73E-05	-16.78500
-0.02226	-9.69E-05	-16.78500
-0.02726	-9.82E-05	-18.31000
-0.03225	-9.80E-05	-18.31000
-0.03725	-9.96E-05	-19.83500
-0.04225	-9.98E-05	-18.31000
-0.04724	-1.02E-04	-19.83500
-0.05228	-1.03E-04	-19.83500
-0.05728	-1.05E-04	-19.83500
-0.06226	-1.07E-04	-19.83500
-0.06726	-1.10E-04	-21.36500
-0.07227	-1.12E-04	-21.36500
-0.07727	-1.16E-04	-22.89000
-0.08228	-1.20E-04	-22.89000
-0.08728	-1.25E-04	-22.89000
-0.09229	-1.29E-04	-22.89000
-0.09726	-1.36E-04	-22.89000
-0.10226	-1.42E-04	-22.89000
-0.10727	-1.49E-04	-25.94000
-0.11224	-1.56E-04	-25.94000
-0.11728	-1.65E-04	-25.94000
-0.12225	-1.73E-04	-25.94000
-0.12726	-1.83E-04	-27.46500
-0.13226	-1.91E-04	-27.46500
-0.13727	-2.01E-04	-27.46500
-0.14224	-2.08E-04	-28.99000
-0.14725	-2.18E-04	-30.52000
-0.15225	-2.25E-04	-30.52000
-0.15726	-2.33E-04	-32.04500
-0.16226	-2.39E-04	-32.04500
-0.16727	-2.45E-04	-35.09500
-0.17224	-2.49E-04	-35.09500
-0.17725	-2.53E-04	-35.09500
-0.18225	-2.54E-04	-35.09500
-0.18726	-2.55E-04	-36.62000
-0.19223	-2.52E-04	-38.15000
-0.19724	-2.50E-04	-39.67500
-0.20224	-2.44E-04	-41.20000
-0.20724	-2.39E-04	-42.72500
-0.21225	-2.31E-04	-42.72500
-0.21725	-2.25E-04	-44.25000
-0.22223	-2.17E-04	-44.25000
-0.22723	-2.10E-04	-44.25000
-0.23224	-2.03E-04	-45.77500
-0.23724	-1.98E-04	-45.77500
-0.24225	-1.91E-04	-47.30500
-0.24725	-1.86E-04	-47.30500
-0.25223	-1.81E-04	-48.83000
-0.25723	-1.77E-04	-48.83000
-0.26224	-1.72E-04	-50.35500
-0.26724	-1.69E-04	-50.35500
-0.27225	-1.65E-04	-50.35500
-0.27725	-1.62E-04	-51.88000
-0.28223	-1.58E-04	-53.40500
-0.28723	-1.56E-04	-53.40500
-0.29224	-1.52E-04	-53.40500
-0.29724	-1.50E-04	-54.93000
-0.30222	-1.47E-04	-56.46000
-0.30722	-1.46E-04	-56.46000
-0.31223	-1.43E-04	-56.46000
-0.31723	-1.41E-04	-56.46000
-0.3222	-1.39E-04	-57.98500
-0.32724	-1.37E-04	-57.98500
-0.33221	-1.35E-04	-57.98500
-0.33722	-1.34E-04	-59.51000
-0.34222	-1.32E-04	-59.51000
-0.34723	-1.31E-04	-59.51000
-0.3522	-1.29E-04	-61.03500
-0.35721	-1.28E-04	-59.51000
-0.36221	-1.26E-04	-62.56000
-0.36722	-1.25E-04	-62.56000
-0.37222	-1.23E-04	-64.08500
-0.3772	-1.22E-04	-62.56000
-0.3822	-1.21E-04	-65.61500
-0.38721	-1.20E-04	-65.61500
-0.39221	-1.18E-04	-65.61500
-0.39722	-1.18E-04	-65.61500
-0.40222	-1.16E-04	-67.14000
-0.4072	-1.16E-04	-67.14000
-0.4122	-1.14E-04	-67.14000
-0.41721	-1.14E-04	-67.14000
-0.42221	-1.12E-04	-68.66500
-0.42722	-1.12E-04	-68.66500
-0.43219	-1.10E-04	-70.19000
-0.43719	-1.10E-04	-70.19000
-0.4422	-1.09E-04	-70.19000
-0.4472	-1.08E-04	-70.19000
-0.45221	-1.07E-04	-71.71500
-0.45718	-1.07E-04	-71.71500
-0.46219	-1.06E-04	-73.24500
-0.46719	-1.05E-04	-73.24500
-0.4722	-1.04E-04	-73.24500
-0.4772	-1.04E-04	-73.24500
-0.48221	-1.03E-04	-74.77000
-0.48718	-1.03E-04	-74.77000
-0.49219	-1.02E-04	-76.29500
-0.49719	-1.01E-04	-76.29500
-0.49814	-9.80E-05	-76.29500
-0.49313	-9.65E-05	-76.29500
-0.48813	-9.49E-05	-77.82000
-0.48312	-9.44E-05	-77.82000
-0.47812	-9.31E-05	-77.82000
-0.47311	-9.28E-05	-77.82000
-0.46811	-9.16E-05	-77.82000
-0.4631	-9.13E-05	-77.82000
-0.45813	-9.01E-05	-79.34500
-0.45313	-8.99E-05	-79.34500
-0.44809	-8.88E-05	-79.34500
-0.44312	-8.87E-05	-79.34500
-0.43811	-8.76E-05	-80.87000
-0.43311	-8.75E-05	-80.87000
-0.4281	-8.64E-05	-82.40000
-0.4231	-8.63E-05	-82.40000
-0.41809	-8.53E-05	-82.40000
-0.41312	-8.52E-05	-82.40000
-0.40808	-8.42E-05	-83.92500
-0.40311	-8.42E-05	-83.92500
-0.3981	-8.32E-05	-82.40000
-0.3931	-8.32E-05	-82.40000
-0.38809	-8.22E-05	-85.45000
-0.38309	-8.22E-05	-83.92500
-0.37808	-8.12E-05	-85.45000
-0.37311	-8.12E-05	-85.45000
-0.36807	-8.03E-05	-86.97500
-0.3631	-8.03E-05	-86.97500
-0.35809	-7.94E-05	-86.97500
-0.35309	-7.94E-05	-88.50000
-0.34808	-7.85E-05	-86.97500
-0.34311	-7.86E-05	-86.97500
-0.33807	-7.76E-05	-88.50000
-0.3331	-7.77E-05	-88.50000
-0.32809	-7.68E-05	-88.50000
-0.32309	-7.69E-05	-88.50000
-0.31808	-7.59E-05	-90.02500
-0.31308	-7.60E-05	-90.02500
-0.30807	-7.51E-05	-90.02500
-0.30307	-7.52E-05	-90.02500
-0.29807	-7.43E-05	-91.55500
-0.29309	-7.44E-05	-91.55500
-0.28809	-7.34E-05	-93.08000
-0.28308	-7.35E-05	-93.08000
-0.27808	-7.25E-05	-93.08000
-0.27307	-7.26E-05	-93.08000
-0.26807	-7.16E-05	-93.08000
-0.26306	-7.16E-05	-93.08000
-0.25806	-7.06E-05	-94.60500
-0.25305	-7.06E-05	-94.60500
-0.24808	-6.94E-05	-94.60500
-0.24307	-6.94E-05	-94.60500
-0.23807	-6.81E-05	-96.13000
-0.23309	-6.79E-05	-96.13000
-0.22806	-6.65E-05	-96.13000
-0.22308	-6.62E-05	-96.13000
-0.21808	-6.46E-05	-96.13000
-0.21307	-6.41E-05	-96.13000
-0.20807	-6.22E-05	-96.13000
-0.20306	-6.14E-05	-97.65500
-0.19806	-5.91E-05	-97.65500
-0.19308	-5.79E-05	-97.65500
-0.18805	-5.52E-05	-99.18500
-0.18307	-5.36E-05	-99.18500
-0.17807	-5.04E-05	-99.18500
-0.17307	-4.81E-05	-99.18500
-0.16806	-4.42E-05	-99.18500
-0.16309	-4.13E-05	-99.18500
-0.15805	-3.68E-05	-99.18500
-0.15308	-3.32E-05	-99.18500
-0.14807	-2.78E-05	-100.71000
-0.14307	-2.35E-05	-100.71000
-0.13806	-1.74E-05	-100.71000
-0.13306	-1.24E-05	-100.71000
-0.12805	-5.59E-06	-100.71000
-0.12308	1.75E-07	-102.23500
-0.11807	7.70E-06	-100.71000
-0.11307	1.42E-05	-100.71000
-0.10806	2.24E-05	-102.23500
-0.10306	2.97E-05	-102.23500
-0.09805	3.87E-05	-102.23500
-0.09308	4.67E-05	-100.71000
-0.08807	5.65E-05	-100.71000
-0.08307	6.53E-05	-100.71000
-0.07806	7.59E-05	-100.71000
-0.07306	8.55E-05	-100.71000
-0.06805	9.68E-05	-99.18500
-0.06305	1.07E-04	-99.18500
-0.05807	1.19E-04	-99.18500
-0.05307	1.30E-04	-99.18500
-0.04803	1.43E-04	-99.18500
-0.04304	1.55E-04	-97.65500
-0.03804	1.68E-04	-97.65500
-0.03304	1.80E-04	-96.13000
-0.02805	1.95E-04	-96.13000
-0.02305	2.08E-04	-96.13000
-0.01805	2.22E-04	-96.13000
-0.01306	2.36E-04	-94.60500
-0.00805	2.51E-04	-94.60500
-0.00306	2.66E-04	-91.55500
0.00194	2.82E-04	-91.55500
0.00693	2.96E-04	-90.02500
0.01194	3.13E-04	-91.55500
0.01693	3.28E-04	-88.50000
0.02193	3.45E-04	-86.97500
0.02693	3.61E-04	-82.40000
0.03193	3.78E-04	-83.92500
0.03692	3.94E-04	-80.87000
0.04193	4.11E-04	-80.87000
0.04692	4.27E-04	-77.82000
0.05194	4.45E-04	-77.82000
0.05695	4.61E-04	-73.24500
0.06195	4.79E-04	-74.77000
0.06693	4.95E-04	-70.19000
0.07193	5.13E-04	-70.19000
0.07693	5.29E-04	-65.61500
0.08194	5.47E-04	-65.61500
0.08694	5.62E-04	-61.03500
0.09195	5.79E-04	-61.03500
